



number,dm,intensity
2,,
3,1.901205e-01,4.030062e+06
4,1.706078e-01,2.443099e+06
5,1.557895e-01,4.173475e+06
6,1.446718e-01,3.403463e+06
7,1.353664e-01,4.429565e+06
8,1.279943e-01,4.112899e+06
9,1.214399e-01,4.749082e+06
10,1.161314e-01,4.667618e+06
11,1.111979e-01,5.091393e+06
12,1.071479e-01,5.127337e+06
13,1.032498e-01,5.434868e+06
14,1.000474e-01,5.526250e+06
15,9.689075e-02,5.766782e+06
16,9.425742e-02,5.883827e+06